ENLIGHTEN Version,1.7.2
Measurement ID,20190716-221457-087029-WP-00438
Serial Number,WP-00438
Label,2mm HDPE
Integration Time,2000
Timestamp,2019-07-16 22:14:57.087029
Note,
Temperature,-99
CCD C0,807.1400146484375
CCD C1,0.11761099845170975
CCD C2,-1.6414700439781882e-05
CCD C3,2.3293600381890656e-09
CCD Offset,0
CCD Gain,8.0
Laser Wavelength,785.0
Laser Enable,True
Laser Power,100.0
Laser Temperature,-99
Pixel Count,1952

Wavenumber,Processed
349.43,0.00
351.23,0.00
353.04,0.00
354.84,6519.00
356.64,5692.00
358.44,6684.00
360.24,5552.00
362.04,6818.00
363.84,5714.00
365.64,6702.00
367.43,5780.00
369.23,6882.00
371.02,5841.00
372.81,6794.00
374.60,5570.00
376.39,6831.00
378.18,5908.00
379.97,6537.00
381.76,5547.00
383.55,6458.00
385.33,5563.00
387.11,6632.00
388.90,5540.00
390.68,6314.00
392.46,5594.00
394.24,6715.00
396.02,5414.00
397.80,6493.00
399.58,5823.00
401.35,6423.00
403.13,5484.00
404.90,6541.00
406.68,5591.00
408.45,6450.00
410.22,5530.00
411.99,6494.00
413.76,5716.00
415.53,6735.00
417.30,5631.00
419.06,6369.00
420.83,5554.00
422.59,6469.00
424.35,5716.00
426.12,6801.00
427.88,5569.00
429.64,6884.00
431.40,5786.00
433.16,6465.00
434.91,5537.00
436.67,6338.00
438.43,5957.00
440.18,6492.00
441.93,5576.00
443.69,6702.00
445.44,5567.00
447.19,6408.00
448.94,5478.00
450.69,6537.00
452.43,5257.00
454.18,6649.00
455.92,5569.00
457.67,6415.00
459.41,5475.00
461.16,6045.00
462.90,5432.00
464.64,6163.00
466.38,5298.00
468.12,6200.00
469.85,5217.00
471.59,6393.00
473.33,5239.00
475.06,6047.00
476.80,5204.00
478.53,6110.00
480.26,5362.00
481.99,5751.00
483.72,5240.00
485.45,6088.00
487.18,5185.00
488.91,5805.00
490.63,5163.00
492.36,6041.00
494.08,5108.00
495.80,5825.00
497.53,5053.00
499.25,5926.00
500.97,5153.00
502.69,5865.00
504.41,5072.00
506.12,5731.00
507.84,4936.00
509.56,5642.00
511.27,4993.00
512.98,5455.00
514.70,4942.00
516.41,5628.00
518.12,4938.00
519.83,5628.00
521.54,4828.00
523.25,5618.00
524.95,4896.00
526.66,5436.00
528.36,4678.00
530.07,5525.00
531.77,4793.00
533.47,5394.00
535.18,4750.00
536.88,5640.00
538.58,4570.00
540.27,5474.00
541.97,4625.00
543.67,5599.00
545.36,4670.00
547.06,5350.00
548.75,4554.00
550.45,5382.00
552.14,4730.00
553.83,5441.00
555.52,4686.00
557.21,5313.00
558.90,4668.00
560.58,5439.00
562.27,4737.00
563.96,5482.00
565.64,4704.00
567.32,5552.00
569.01,4594.00
570.69,5486.00
572.37,4648.00
574.05,5599.00
575.73,4661.00
577.41,5401.00
579.08,4521.00
580.76,5323.00
582.44,4597.00
584.11,5211.00
585.78,4559.00
587.46,5351.00
589.13,4859.00
590.80,5547.00
592.47,4551.00
594.14,5472.00
595.81,4584.00
597.47,5294.00
599.14,4537.00
600.80,5358.00
602.47,4564.00
604.13,5295.00
605.79,4610.00
607.46,5276.00
609.12,4406.00
610.78,5107.00
612.44,4542.00
614.09,5087.00
615.75,4447.00
617.41,5357.00
619.06,4465.00
620.72,5089.00
622.37,4371.00
624.02,5245.00
625.67,4658.00
627.33,5255.00
628.97,4643.00
630.62,5253.00
632.27,4442.00
633.92,5271.00
635.57,4574.00
637.21,5315.00
638.86,4403.00
640.50,4989.00
642.14,4468.00
643.78,4991.00
645.42,4413.00
647.06,5156.00
648.70,4240.00
650.34,4965.00
651.98,4266.00
653.62,5006.00
655.25,4160.00
656.89,5135.00
658.52,4247.00
660.15,4900.00
661.79,4224.00
663.42,4989.00
665.05,4183.00
666.68,4885.00
668.31,4387.00
669.93,5019.00
671.56,4192.00
673.19,5145.00
674.81,4243.00
676.43,4765.00
678.06,4147.00
679.68,4722.00
681.30,4044.00
682.92,4668.00
684.54,4050.00
686.16,4591.00
687.78,4170.00
689.40,4673.00
691.01,4238.00
692.63,4849.00
694.24,4028.00
695.86,4655.00
697.47,3990.00
699.08,4535.00
700.69,4186.00
702.30,4812.00
703.91,3999.00
705.52,4930.00
707.13,4221.00
708.74,4777.00
710.34,4154.00
711.95,4647.00
713.55,4140.00
715.15,4413.00
716.76,4068.00
718.36,4712.00
719.96,4001.00
721.56,4751.00
723.16,4148.00
724.76,4813.00
726.35,4055.00
727.95,4688.00
729.55,4194.00
731.14,4759.00
732.73,4221.00
734.33,4713.00
735.92,4193.00
737.51,4889.00
739.10,4126.00
740.69,4951.00
742.28,4000.00
743.87,4901.00
745.46,4187.00
747.04,4729.00
748.63,4196.00
750.21,4884.00
751.80,4113.00
753.38,4781.00
754.96,4173.00
756.54,4884.00
758.12,4092.00
759.70,5121.00
761.28,4177.00
762.86,4845.00
764.44,4271.00
766.01,4825.00
767.59,4148.00
769.16,4802.00
770.74,4323.00
772.31,4915.00
773.88,4305.00
775.45,4960.00
777.02,4310.00
778.59,5078.00
780.16,4222.00
781.73,5110.00
783.30,4144.00
784.86,5110.00
786.43,4427.00
787.99,5118.00
789.56,4350.00
791.12,5264.00
792.68,4320.00
794.24,5168.00
795.80,4294.00
797.36,5106.00
798.92,4421.00
800.48,5098.00
802.04,4483.00
803.59,5142.00
805.15,4656.00
806.70,5066.00
808.26,4234.00
809.81,5221.00
811.36,4510.00
812.91,5213.00
814.46,4440.00
816.01,5227.00
817.56,4532.00
819.11,5231.00
820.66,4678.00
822.20,5455.00
823.75,4661.00
825.30,5501.00
826.84,4521.00
828.38,5415.00
829.93,4539.00
831.47,5229.00
833.01,4544.00
834.55,5483.00
836.09,4573.00
837.63,5464.00
839.16,4689.00
840.70,5431.00
842.24,4704.00
843.77,5510.00
845.31,5052.00
846.84,5652.00
848.37,5132.00
849.90,5693.00
851.44,4899.00
852.97,5491.00
854.50,4813.00
856.03,5561.00
857.55,5003.00
859.08,5802.00
860.61,4885.00
862.13,5684.00
863.66,4996.00
865.18,5735.00
866.70,4974.00
868.23,5768.00
869.75,4884.00
871.27,6002.00
872.79,5000.00
874.31,5875.00
875.83,5071.00
877.35,5801.00
878.86,4978.00
880.38,5762.00
881.89,5003.00
883.41,5868.00
884.92,4905.00
886.44,5628.00
887.95,5021.00
889.46,5849.00
890.97,5030.00
892.48,5708.00
893.99,4759.00
895.50,5871.00
897.01,4963.00
898.51,5755.00
900.02,5010.00
901.52,5571.00
903.03,4901.00
904.53,5748.00
906.04,4883.00
907.54,5521.00
909.04,4815.00
910.54,5560.00
912.04,4797.00
913.54,5407.00
915.04,4631.00
916.53,5421.00
918.03,4703.00
919.53,5603.00
921.02,4625.00
922.52,5384.00
924.01,4612.00
925.50,5329.00
927.00,4616.00
928.49,5253.00
929.98,4669.00
931.47,5244.00
932.96,4476.00
934.44,5194.00
935.93,4633.00
937.42,5095.00
938.90,4454.00
940.39,5074.00
941.87,4621.00
943.36,5218.00
944.84,4562.00
946.32,4978.00
947.80,4519.00
949.29,4989.00
950.77,4522.00
952.24,5219.00
953.72,4429.00
955.20,5073.00
956.68,4067.00
958.15,4978.00
959.63,4427.00
961.10,4764.00
962.58,4307.00
964.05,4928.00
965.52,4118.00
967.00,4897.00
968.47,4154.00
969.94,4919.00
971.41,4317.00
972.87,5013.00
974.34,4083.00
975.81,4753.00
977.28,4212.00
978.74,5036.00
980.21,4160.00
981.67,4880.00
983.13,4180.00
984.60,4693.00
986.06,4104.00
987.52,4822.00
988.98,4191.00
990.44,4911.00
991.90,4083.00
993.36,4889.00
994.82,4116.00
996.27,4930.00
997.73,4101.00
999.18,4790.00
1000.64,4191.00
1002.09,4823.00
1003.55,4264.00
1005.00,4938.00
1006.45,4411.00
1007.90,4928.00
1009.35,4093.00
1010.80,5202.00
1012.25,4268.00
1013.70,4806.00
1015.14,4300.00
1016.59,4700.00
1018.04,4226.00
1019.48,4939.00
1020.93,4432.00
1022.37,5121.00
1023.81,4501.00
1025.25,4906.00
1026.70,4503.00
1028.14,4996.00
1029.58,4521.00
1031.02,5280.00
1032.45,4866.00
1033.89,5610.00
1035.33,5428.00
1036.77,6590.00
1038.20,6243.00
1039.64,7275.00
1041.07,6658.00
1042.50,7686.00
1043.94,7261.00
1045.37,7936.00
1046.80,7500.00
1048.23,8041.00
1049.66,7138.00
1051.09,8023.00
1052.52,7231.00
1053.95,8029.00
1055.37,7049.00
1056.80,7993.00
1058.23,7184.00
1059.65,8079.00
1061.08,7125.00
1062.50,7903.00
1063.92,7188.00
1065.34,7949.00
1066.76,6672.00
1068.19,7468.00
1069.61,6712.00
1071.02,7366.00
1072.44,6377.00
1073.86,7081.00
1075.28,6079.00
1076.69,6658.00
1078.11,5982.00
1079.53,6644.00
1080.94,5753.00
1082.35,6587.00
1083.77,5765.00
1085.18,6204.00
1086.59,5525.00
1088.00,6043.00
1089.41,5255.00
1090.82,6133.00
1092.23,5475.00
1093.64,6030.00
1095.04,5245.00
1096.45,6166.00
1097.86,5735.00
1099.26,6730.00
1100.67,6364.00
1102.07,7103.00
1103.47,7066.00
1104.88,8121.00
1106.28,7498.00
1107.68,9032.00
1109.08,8349.00
1110.48,9521.00
1111.88,8803.00
1113.28,9389.00
1114.67,8612.00
1116.07,9279.00
1117.47,8370.00
1118.86,8815.00
1120.26,8022.00
1121.65,8791.00
1123.05,8000.00
1124.44,8403.00
1125.83,7688.00
1127.22,8402.00
1128.61,7438.00
1130.00,8370.00
1131.39,7500.00
1132.78,8093.00
1134.17,7177.00
1135.56,7705.00
1136.94,6756.00
1138.33,7645.00
1139.72,6524.00
1141.10,7330.00
1142.48,6208.00
1143.87,6995.00
1145.25,6128.00
1146.63,6730.00
1148.01,6185.00
1149.39,6775.00
1150.77,5871.00
1152.15,6767.00
1153.53,5918.00
1154.91,6358.00
1156.29,5749.00
1157.66,6217.00
1159.04,5780.00
1160.41,6254.00
1161.79,5492.00
1163.16,6191.00
1164.54,5583.00
1165.91,6042.00
1167.28,5443.00
1168.65,5912.00
1170.02,5334.00
1171.39,5994.00
1172.76,5233.00
1174.13,5947.00
1175.50,5297.00
1176.86,5815.00
1178.23,5300.00
1179.60,5696.00
1180.96,5260.00
1182.33,5708.00
1183.69,4889.00
1185.05,5716.00
1186.42,4841.00
1187.78,5562.00
1189.14,5030.00
1190.50,5639.00
1191.86,4690.00
1193.22,5569.00
1194.58,4793.00
1195.94,5454.00
1197.29,4931.00
1198.65,5441.00
1200.01,4739.00
1201.36,5280.00
1202.72,4864.00
1204.07,5422.00
1205.42,4888.00
1206.78,5471.00
1208.13,4714.00
1209.48,5359.00
1210.83,4927.00
1212.18,5440.00
1213.53,4644.00
1214.88,5246.00
1216.23,4640.00
1217.58,5341.00
1218.92,4688.00
1220.27,5329.00
1221.61,4525.00
1222.96,5273.00
1224.30,4693.00
1225.65,4901.00
1226.99,4686.00
1228.33,5246.00
1229.67,4611.00
1231.01,5150.00
1232.36,4439.00
1233.70,5109.00
1235.03,4674.00
1236.37,5327.00
1237.71,4485.00
1239.05,5223.00
1240.38,4717.00
1241.72,5137.00
1243.06,4644.00
1244.39,5171.00
1245.72,4685.00
1247.06,5297.00
1248.39,4734.00
1249.72,5122.00
1251.05,4763.00
1252.39,5418.00
1253.72,4718.00
1255.05,5267.00
1256.37,4999.00
1257.70,5294.00
1259.03,5105.00
1260.36,5542.00
1261.68,5148.00
1263.01,5792.00
1264.33,5274.00
1265.66,6429.00
1266.98,5893.00
1268.31,7054.00
1269.63,6814.00
1270.95,7978.00
1272.27,7890.00
1273.59,8996.00
1274.91,8646.00
1276.23,9870.00
1277.55,9570.00
1278.87,9746.00
1280.19,9181.00
1281.51,9992.00
1282.82,8815.00
1284.14,9294.00
1285.45,8776.00
1286.77,9110.00
1288.08,8243.00
1289.39,8921.00
1290.71,8107.00
1292.02,8828.00
1293.33,8382.00
1294.64,9004.00
1295.95,8515.00
1297.26,8880.00
1298.57,7929.00
1299.88,8421.00
1301.19,7558.00
1302.49,7915.00
1303.80,7007.00
1305.11,7404.00
1306.41,6765.00
1307.72,7234.00
1309.02,6211.00
1310.32,6916.00
1311.63,5963.00
1312.93,6397.00
1314.23,5887.00
1315.53,6317.00
1316.83,5498.00
1318.13,5943.00
1319.43,5289.00
1320.73,5660.00
1322.03,4928.00
1323.32,5603.00
1324.62,4755.00
1325.92,5357.00
1327.21,4672.00
1328.51,5376.00
1329.80,4618.00
1331.10,5365.00
1332.39,4485.00
1333.68,5115.00
1334.97,4354.00
1336.27,4877.00
1337.56,4572.00
1338.85,5172.00
1340.14,4227.00
1341.42,4980.00
1342.71,4488.00
1344.00,5152.00
1345.29,4555.00
1346.57,5224.00
1347.86,4472.00
1349.15,5278.00
1350.43,4823.00
1351.71,5045.00
1353.00,4655.00
1354.28,5231.00
1355.56,4485.00
1356.85,5272.00
1358.13,4463.00
1359.41,5076.00
1360.69,4546.00
1361.97,5057.00
1363.25,4558.00
1364.52,4979.00
1365.80,4700.00
1367.08,5191.00
1368.35,4420.00
1369.63,5193.00
1370.91,4342.00
1372.18,5194.00
1373.45,4499.00
1374.73,5107.00
1376.00,4717.00
1377.27,5128.00
1378.54,4815.00
1379.82,5107.00
1381.09,4686.00
1382.36,5156.00
1383.63,4813.00
1384.89,5279.00
1386.16,4793.00
1387.43,5381.00
1388.70,4851.00
1389.96,5838.00
1391.23,5321.00
1392.50,6169.00
1393.76,5955.00
1395.02,6999.00
1396.29,6428.00
1397.55,7288.00
1398.81,6673.00
1400.08,7574.00
1401.34,6696.00
1402.60,7427.00
1403.86,6994.00
1405.12,7794.00
1406.38,7506.00
1407.63,7924.00
1408.89,7591.00
1410.15,8527.00
1411.41,8087.00
1412.66,9140.00
1413.92,9127.00
1415.17,10392.00
1416.43,10122.00
1417.68,11237.00
1418.93,10968.00
1420.19,12311.00
1421.44,12018.00
1422.69,12419.00
1423.94,11983.00
1425.19,12807.00
1426.44,12527.00
1427.69,12821.00
1428.94,12083.00
1430.19,12794.00
1431.43,12104.00
1432.68,12645.00
1433.93,12274.00
1435.17,12530.00
1436.42,12218.00
1437.66,13034.00
1438.91,12426.00
1440.15,13070.00
1441.39,12813.00
1442.64,13112.00
1443.88,12735.00
1445.12,13164.00
1446.36,12626.00
1447.60,13038.00
1448.84,11988.00
1450.08,12497.00
1451.32,11757.00
1452.56,11916.00
1453.79,11174.00
1455.03,11539.00
1456.27,10709.00
1457.50,10741.00
1458.74,10249.00
1459.97,10259.00
1461.21,9665.00
1462.44,9917.00
1463.67,9007.00
1464.91,9745.00
1466.14,8704.00
1467.37,8986.00
1468.60,8268.00
1469.83,8700.00
1471.06,7887.00
1472.29,7905.00
1473.52,7232.00
1474.75,7633.00
1475.97,6935.00
1477.20,7130.00
1478.43,6691.00
1479.65,7090.00
1480.88,6241.00
1482.10,6585.00
1483.33,5870.00
1484.55,6260.00
1485.77,5545.00
1487.00,6221.00
1488.22,5518.00
1489.44,5941.00
1490.66,5263.00
1491.88,5598.00
1493.10,4882.00
1494.32,5404.00
1495.54,5031.00
1496.76,5375.00
1497.97,4997.00
1499.19,5353.00
1500.41,4609.00
1501.62,5141.00
1502.84,4500.00
1504.05,5132.00
1505.27,4644.00
1506.48,4856.00
1507.70,4388.00
1508.91,4951.00
1510.12,4306.00
1511.33,4820.00
1512.54,4452.00
1513.75,4778.00
1514.96,4264.00
1516.17,4816.00
1517.38,4439.00
1518.59,4841.00
1519.80,4206.00
1521.01,4735.00
1522.21,4120.00
1523.42,4561.00
1524.63,4076.00
1525.83,4490.00
1527.04,4157.00
1528.24,4490.00
1529.44,4105.00
1530.65,4594.00
1531.85,4072.00
1533.05,4664.00
1534.25,3881.00
1535.45,4351.00
1536.65,3933.00
1537.85,4492.00
1539.05,3726.00
1540.25,4431.00
1541.45,4104.00
1542.65,4434.00
1543.85,4021.00
1545.04,4306.00
1546.24,3735.00
1547.44,4275.00
1548.63,3950.00
1549.83,4163.00
1551.02,3738.00
1552.21,4116.00
1553.41,3752.00
1554.60,4337.00
1555.79,3585.00
1556.98,4235.00
1558.17,3684.00
1559.37,4070.00
1560.56,3575.00
1561.74,3948.00
1562.93,3708.00
1564.12,3872.00
1565.31,3583.00
1566.50,4043.00
1567.68,3442.00
1568.87,4059.00
1570.06,3680.00
1571.24,3989.00
1572.43,3537.00
1573.61,3975.00
1574.80,3329.00
1575.98,3949.00
1577.16,3472.00
1578.34,3826.00
1579.53,3243.00
1580.71,3784.00
1581.89,3298.00
1583.07,3854.00
1584.25,3448.00
1585.43,3795.00
1586.61,3360.00
1587.78,3639.00
1588.96,3479.00
1590.14,3791.00
1591.32,3237.00
1592.49,3685.00
1593.67,3204.00
1594.84,3697.00
1596.02,3406.00
1597.19,3688.00
1598.37,3192.00
1599.54,3728.00
1600.71,3184.00
1601.88,3644.00
1603.06,3276.00
1604.23,3768.00
1605.40,3401.00
1606.57,3671.00
1607.74,3207.00
1608.91,3681.00
1610.07,3143.00
1611.24,3674.00
1612.41,3162.00
1613.58,3694.00
1614.74,3157.00
1615.91,3575.00
1617.08,3122.00
1618.24,3719.00
1619.41,3323.00
1620.57,3573.00
1621.73,3094.00
1622.90,3586.00
1624.06,3241.00
1625.22,3616.00
1626.38,3233.00
1627.54,3809.00
1628.70,3126.00
1629.87,3590.00
1631.02,3115.00
1632.18,3516.00
1633.34,3339.00
1634.50,3492.00
1635.66,3135.00
1636.82,3558.00
1637.97,3074.00
1639.13,3488.00
1640.28,3099.00
1641.44,3608.00
1642.59,3099.00
1643.75,3642.00
1644.90,2972.00
1646.06,3634.00
1647.21,3038.00
1648.36,3660.00
1649.51,3208.00
1650.66,3528.00
1651.81,3172.00
1652.97,3417.00
1654.11,2970.00
1655.26,3587.00
1656.41,3117.00
1657.56,3418.00
1658.71,3093.00
1659.86,3513.00
1661.00,3079.00
1662.15,3429.00
1663.30,3144.00
1664.44,3584.00
1665.59,3015.00
1666.73,3533.00
1667.88,2973.00
1669.02,3624.00
1670.16,2953.00
1671.30,3476.00
1672.45,3052.00
1673.59,3345.00
1674.73,3119.00
1675.87,3398.00
1677.01,3015.00
1678.15,3420.00
1679.29,3016.00
1680.43,3319.00
1681.57,3099.00
1682.70,3502.00
1683.84,3144.00
1684.98,3408.00
1686.12,3159.00
1687.25,3611.00
1688.39,3080.00
1689.52,3596.00
1690.66,3135.00
1691.79,3484.00
1692.92,3036.00
1694.06,3543.00
1695.19,3142.00
1696.32,3596.00
1697.45,3012.00
1698.58,3478.00
1699.72,2875.00
1700.85,3310.00
1701.98,3147.00
1703.10,3331.00
1704.23,2980.00
1705.36,3592.00
1706.49,3171.00
1707.62,3741.00
1708.74,3172.00
1709.87,3586.00
1711.00,3225.00
1712.12,3639.00
1713.25,3267.00
1714.37,3470.00
1715.50,3132.00
1716.62,3490.00
1717.74,3015.00
1718.87,3394.00
1719.99,3191.00
1721.11,3444.00
1722.23,3134.00
1723.35,3560.00
1724.47,3083.00
1725.59,3524.00
1726.71,3122.00
1727.83,3582.00
1728.95,3116.00
1730.07,3533.00
1731.19,2975.00
1732.30,3502.00
1733.42,3124.00
1734.54,3447.00
1735.65,3060.00
1736.77,3405.00
1737.88,3113.00
1739.00,3621.00
1740.11,2988.00
1741.23,3553.00
1742.34,3042.00
1743.45,3399.00
1744.56,2923.00
1745.68,3365.00
1746.79,2953.00
1747.90,3398.00
1749.01,2969.00
1750.12,3386.00
1751.23,2805.00
1752.34,3562.00
1753.45,3051.00
1754.55,3369.00
1755.66,2959.00
1756.77,3371.00
1757.88,2908.00
1758.98,3355.00
1760.09,2903.00
1761.19,3472.00
1762.30,2919.00
1763.40,3334.00
1764.51,2793.00
1765.61,3222.00
1766.71,2740.00
1767.82,3072.00
1768.92,2873.00
1770.02,3366.00
1771.12,2755.00
1772.22,3074.00
1773.32,2825.00
1774.42,3267.00
1775.52,2806.00
1776.62,3171.00
1777.72,2662.00
1778.82,3164.00
1779.92,2682.00
1781.01,3160.00
1782.11,2482.00
1783.21,3181.00
1784.30,2645.00
1785.40,3082.00
1786.50,2719.00
1787.59,2984.00
1788.68,2538.00
1789.78,3183.00
1790.87,2708.00
1791.96,2936.00
1793.06,2559.00
1794.15,3096.00
1795.24,2589.00
1796.33,3129.00
1797.42,2650.00
1798.51,3057.00
1799.60,2665.00
1800.69,2845.00
1801.78,2472.00
1802.87,2870.00
1803.96,2532.00
1805.05,2741.00
1806.13,2489.00
1807.22,2972.00
1808.31,2435.00
1809.39,2903.00
1810.48,2379.00
1811.56,2734.00
1812.65,2381.00
1813.73,2756.00
1814.82,2543.00
1815.90,2695.00
1816.98,2347.00
1818.07,2827.00
1819.15,2290.00
1820.23,2685.00
1821.31,2491.00
1822.39,2563.00
1823.47,2331.00
1824.55,2648.00
1825.63,2128.00
1826.71,2535.00
1827.79,2387.00
1828.87,2645.00
1829.95,2198.00
1831.02,2668.00
1832.10,2111.00
1833.18,2517.00
1834.25,2031.00
1835.33,2652.00
1836.40,2153.00
1837.48,2502.00
1838.55,2222.00
1839.63,2297.00
1840.70,2120.00
1841.77,2453.00
1842.85,2054.00
1843.92,2343.00
1844.99,2158.00
1846.06,2431.00
1847.13,1996.00
1848.20,2283.00
1849.28,2108.00
1850.34,2342.00
1851.41,1934.00
1852.48,2313.00
1853.55,1823.00
1854.62,2322.00
1855.69,2131.00
1856.76,2208.00
1857.82,1902.00
1858.89,2302.00
1859.95,1813.00
1861.02,2399.00
1862.09,1720.00
1863.15,2165.00
1864.21,1756.00
1865.28,2128.00
1866.34,1928.00
1867.41,2141.00
1868.47,1863.00
1869.53,2174.00
1870.59,1844.00
1871.65,2157.00
1872.71,1928.00
1873.78,2186.00
1874.84,1936.00
1875.90,2138.00
1876.96,1717.00
1878.01,2260.00
1879.07,1787.00
1880.13,2081.00
1881.19,1653.00
1882.25,1994.00
1883.30,1723.00
1884.36,2201.00
1885.42,1767.00
1886.47,2255.00
1887.53,1704.00
1888.58,2150.00
1889.64,1707.00
1890.69,2073.00
1891.74,1668.00
1892.80,2035.00
1893.85,1741.00
1894.90,2186.00
1895.96,1706.00
1897.01,2100.00
1898.06,1717.00
1899.11,2101.00
1900.16,1506.00
1901.21,1937.00
1902.26,1672.00
1903.31,2061.00
1904.36,1809.00
1905.41,2112.00
1906.45,1574.00
1907.50,1997.00
1908.55,1675.00
1909.60,1968.00
1910.64,1667.00
1911.69,2066.00
1912.73,1752.00
1913.78,2000.00
1914.82,1590.00
1915.87,2169.00
1916.91,1734.00
1917.96,2031.00
1919.00,1603.00
1920.04,1938.00
1921.08,1762.00
1922.13,2018.00
1923.17,1685.00
1924.21,1993.00
1925.25,1562.00
1926.29,1934.00
1927.33,1737.00
1928.37,1818.00
1929.41,1583.00
1930.45,1999.00
1931.49,1678.00
1932.53,1952.00
1933.56,1566.00
1934.60,1883.00
1935.64,1703.00
1936.67,2022.00
1937.71,1738.00
1938.75,2042.00
1939.78,1590.00
1940.82,1907.00
1941.85,1595.00
1942.89,1928.00
1943.92,1645.00
1944.95,1853.00
1945.99,1729.00
1947.02,1959.00
1948.05,1563.00
1949.08,1999.00
1950.11,1680.00
1951.15,1952.00
1952.18,1594.00
1953.21,1956.00
1954.24,1652.00
1955.27,1924.00
1956.30,1660.00
1957.32,1891.00
1958.35,1603.00
1959.38,1966.00
1960.41,1411.00
1961.44,1940.00
1962.46,1608.00
1963.49,1785.00
1964.51,1516.00
1965.54,1898.00
1966.57,1471.00
1967.59,1825.00
1968.62,1573.00
1969.64,1892.00
1970.66,1517.00
1971.69,1892.00
1972.71,1594.00
1973.73,1999.00
1974.75,1522.00
1975.78,1917.00
1976.80,1556.00
1977.82,1825.00
1978.84,1570.00
1979.86,1873.00
1980.88,1501.00
1981.90,1759.00
1982.92,1491.00
1983.94,1858.00
1984.96,1444.00
1985.98,1772.00
1986.99,1418.00
1988.01,2005.00
1989.03,1514.00
1990.04,1833.00
1991.06,1375.00
1992.08,1744.00
1993.09,1559.00
1994.11,1848.00
1995.12,1489.00
1996.14,1997.00
1997.15,1532.00
1998.16,1681.00
1999.18,1425.00
2000.19,1890.00
2001.20,1380.00
2002.21,1731.00
2003.23,1620.00
2004.24,1839.00
2005.25,1361.00
2006.26,1736.00
2007.27,1529.00
2008.28,1830.00
2009.29,1620.00
2010.30,1761.00
2011.31,1440.00
2012.32,1889.00
2013.32,1449.00
2014.33,1864.00
2015.34,1383.00
