ENLIGHTEN Version,1.7.2
Measurement ID,20190716-220742-806872-WP-00438
Serial Number,WP-00438
Label,acetone
Integration Time,1000
Timestamp,2019-07-16 22:07:42.806872
Note,
Temperature,-99
CCD C0,807.1400146484375
CCD C1,0.11761099845170975
CCD C2,-1.6414700439781882e-05
CCD C3,2.3293600381890656e-09
CCD Offset,0
CCD Gain,8.0
Laser Wavelength,785.0
Laser Enable,True
Laser Power,100.0
Laser Temperature,-99
Pixel Count,1952

Wavenumber,Processed
349.43,0.00
351.23,0.00
353.04,0.00
354.84,547.00
356.64,553.00
358.44,454.00
360.24,429.00
362.04,473.00
363.84,514.00
365.64,469.00
367.43,472.00
369.23,442.00
371.02,616.00
372.81,580.00
374.60,672.00
376.39,770.00
378.18,666.00
379.97,789.00
381.76,831.00
383.55,1172.00
385.33,1080.00
387.11,1118.00
388.90,1283.00
390.68,1259.00
392.46,1350.00
394.24,1499.00
396.02,1224.00
397.80,1285.00
399.58,1205.00
401.35,1274.00
403.13,1268.00
404.90,1319.00
406.68,960.00
408.45,976.00
410.22,697.00
411.99,591.00
413.76,677.00
415.53,550.00
417.30,735.00
419.06,501.00
420.83,393.00
422.59,632.00
424.35,299.00
426.12,260.00
427.88,481.00
429.64,559.00
431.40,269.00
433.16,380.00
434.91,190.00
436.67,443.00
438.43,256.00
440.18,232.00
441.93,521.00
443.69,386.00
445.44,326.00
447.19,267.00
448.94,323.00
450.69,365.00
452.43,348.00
454.18,251.00
455.92,440.00
457.67,370.00
459.41,446.00
461.16,171.00
462.90,399.00
464.64,349.00
466.38,540.00
468.12,427.00
469.85,473.00
471.59,610.00
473.33,542.00
475.06,561.00
476.80,571.00
478.53,620.00
480.26,701.00
481.99,932.00
483.72,1071.00
485.45,1187.00
487.18,1108.00
488.91,1239.00
490.63,1187.00
492.36,1466.00
494.08,1376.00
495.80,1489.00
497.53,1373.00
499.25,1405.00
500.97,1298.00
502.69,1486.00
504.41,1656.00
506.12,1526.00
507.84,1304.00
509.56,1456.00
511.27,1514.00
512.98,1624.00
514.70,1878.00
516.41,1810.00
518.12,1892.00
519.83,2236.00
521.54,2263.00
523.25,2477.00
524.95,2615.00
526.66,2862.00
528.36,3113.00
530.07,3279.00
531.77,3200.00
533.47,3358.00
535.18,3159.00
536.88,3307.00
538.58,3173.00
540.27,2933.00
541.97,2612.00
543.67,2500.00
545.36,2018.00
547.06,2050.00
548.75,1607.00
550.45,1326.00
552.14,1310.00
553.83,1041.00
555.52,1012.00
557.21,972.00
558.90,806.00
560.58,980.00
562.27,706.00
563.96,584.00
565.64,525.00
567.32,346.00
569.01,489.00
570.69,489.00
572.37,360.00
574.05,418.00
575.73,453.00
577.41,308.00
579.08,387.00
580.76,417.00
582.44,504.00
584.11,400.00
585.78,351.00
587.46,321.00
589.13,366.00
590.80,313.00
592.47,307.00
594.14,266.00
595.81,258.00
597.47,206.00
599.14,182.00
600.80,150.00
602.47,337.00
604.13,400.00
605.79,209.00
607.46,147.00
609.12,277.00
610.78,237.00
612.44,101.00
614.09,190.00
615.75,250.00
617.41,243.00
619.06,188.00
620.72,190.00
622.37,206.00
624.02,142.00
625.67,158.00
627.33,101.00
628.97,157.00
630.62,150.00
632.27,171.00
633.92,48.00
635.57,151.00
637.21,59.00
638.86,150.00
640.50,61.00
642.14,124.00
643.78,203.00
645.42,66.00
647.06,184.00
648.70,204.00
650.34,61.00
651.98,2.00
653.62,316.00
655.25,102.00
656.89,38.00
658.52,133.00
660.15,121.00
661.79,154.00
663.42,39.00
665.05,277.00
666.68,150.00
668.31,273.00
669.93,290.00
671.56,302.00
673.19,213.00
674.81,17.00
676.43,6.00
678.06,260.00
679.68,50.00
681.30,260.00
682.92,329.00
684.54,71.00
686.16,255.00
687.78,158.00
689.40,229.00
691.01,247.00
692.63,234.00
694.24,272.00
695.86,328.00
697.47,290.00
699.08,267.00
700.69,204.00
702.30,22.00
703.91,182.00
705.52,295.00
707.13,259.00
708.74,236.00
710.34,38.00
711.95,155.00
713.55,61.00
715.15,203.00
716.76,397.00
718.36,317.00
719.96,289.00
721.56,355.00
723.16,540.00
724.76,258.00
726.35,419.00
727.95,289.00
729.55,363.00
731.14,281.00
732.73,467.00
734.33,416.00
735.92,453.00
737.51,445.00
739.10,400.00
740.69,523.00
742.28,601.00
743.87,517.00
745.46,726.00
747.04,841.00
748.63,768.00
750.21,909.00
751.80,1023.00
753.38,1219.00
754.96,1228.00
756.54,1329.00
758.12,1417.00
759.70,1829.00
761.28,1986.00
762.86,2459.00
764.44,3078.00
766.01,3665.00
767.59,4358.00
769.16,5204.00
770.74,6063.00
772.31,7297.00
773.88,8414.00
775.45,10452.00
777.02,12199.00
778.59,14659.00
780.16,16407.00
781.73,19009.00
783.30,19878.00
784.86,22585.00
786.43,22535.00
787.99,24071.00
789.56,23153.00
791.12,22930.00
792.68,20892.00
794.24,20536.00
795.80,17802.00
797.36,16560.00
798.92,14085.00
800.48,12593.00
802.04,9845.00
803.59,8589.00
805.15,6639.00
806.70,5795.00
808.26,4264.00
809.81,3938.00
811.36,3142.00
812.91,2933.00
814.46,2430.00
816.01,2308.00
817.56,1926.00
819.11,1820.00
820.66,1513.00
822.20,1509.00
823.75,1294.00
825.30,1333.00
826.84,1285.00
828.38,1125.00
829.93,1122.00
831.47,1119.00
833.01,948.00
834.55,956.00
836.09,1017.00
837.63,1058.00
839.16,905.00
840.70,836.00
842.24,817.00
843.77,846.00
845.31,890.00
846.84,785.00
848.37,817.00
849.90,694.00
851.44,680.00
852.97,879.00
854.50,625.00
856.03,768.00
857.55,781.00
859.08,673.00
860.61,914.00
862.13,592.00
863.66,928.00
865.18,872.00
866.70,844.00
868.23,765.00
869.75,840.00
871.27,890.00
872.79,921.00
874.31,884.00
875.83,817.00
877.35,745.00
878.86,775.00
880.38,705.00
881.89,989.00
883.41,1044.00
884.92,1066.00
886.44,942.00
887.95,965.00
889.46,1096.00
890.97,1042.00
892.48,991.00
893.99,1108.00
895.50,1265.00
897.01,1294.00
898.51,1229.00
900.02,1374.00
901.52,1321.00
903.03,1301.00
904.53,1214.00
906.04,1108.00
907.54,1145.00
909.04,1276.00
910.54,1177.00
912.04,1148.00
913.54,1224.00
915.04,916.00
916.53,1075.00
918.03,1170.00
919.53,951.00
921.02,938.00
922.52,1059.00
924.01,768.00
925.50,808.00
927.00,881.00
928.49,827.00
929.98,662.00
931.47,648.00
932.96,669.00
934.44,602.00
935.93,604.00
937.42,488.00
938.90,571.00
940.39,573.00
941.87,615.00
943.36,382.00
944.84,519.00
946.32,506.00
947.80,364.00
949.29,605.00
950.77,442.00
952.24,475.00
953.72,434.00
955.20,403.00
956.68,322.00
958.15,384.00
959.63,363.00
961.10,414.00
962.58,492.00
964.05,487.00
965.52,417.00
967.00,408.00
968.47,337.00
969.94,336.00
971.41,442.00
972.87,321.00
974.34,367.00
975.81,406.00
977.28,396.00
978.74,457.00
980.21,378.00
981.67,490.00
983.13,401.00
984.60,426.00
986.06,272.00
987.52,408.00
988.98,353.00
990.44,327.00
991.90,311.00
993.36,485.00
994.82,376.00
996.27,409.00
997.73,290.00
999.18,308.00
1000.64,183.00
1002.09,349.00
1003.55,331.00
1005.00,413.00
1006.45,367.00
1007.90,360.00
1009.35,270.00
1010.80,369.00
1012.25,279.00
1013.70,429.00
1015.14,341.00
1016.59,262.00
1018.04,324.00
1019.48,308.00
1020.93,333.00
1022.37,261.00
1023.81,354.00
1025.25,357.00
1026.70,388.00
1028.14,440.00
1029.58,312.00
1031.02,412.00
1032.45,518.00
1033.89,475.00
1035.33,446.00
1036.77,597.00
1038.20,376.00
1039.64,682.00
1041.07,690.00
1042.50,629.00
1043.94,877.00
1045.37,814.00
1046.80,685.00
1048.23,960.00
1049.66,1103.00
1051.09,1080.00
1052.52,1128.00
1053.95,1316.00
1055.37,1299.00
1056.80,1493.00
1058.23,1694.00
1059.65,2142.00
1061.08,2225.00
1062.50,2348.00
1063.92,2427.00
1065.34,2542.00
1066.76,2724.00
1068.19,2776.00
1069.61,2821.00
1071.02,2758.00
1072.44,2591.00
1073.86,2512.00
1075.28,2183.00
1076.69,2230.00
1078.11,1825.00
1079.53,1817.00
1080.94,1476.00
1082.35,1391.00
1083.77,1225.00
1085.18,1263.00
1086.59,1019.00
1088.00,987.00
1089.41,879.00
1090.82,827.00
1092.23,852.00
1093.64,793.00
1095.04,591.00
1096.45,500.00
1097.86,618.00
1099.26,654.00
1100.67,517.00
1102.07,501.00
1103.47,655.00
1104.88,555.00
1106.28,535.00
1107.68,636.00
1109.08,563.00
1110.48,495.00
1111.88,356.00
1113.28,581.00
1114.67,572.00
1116.07,320.00
1117.47,484.00
1118.86,367.00
1120.26,313.00
1121.65,423.00
1123.05,447.00
1124.44,296.00
1125.83,234.00
1127.22,275.00
1128.61,309.00
1130.00,415.00
1131.39,224.00
1132.78,471.00
1134.17,522.00
1135.56,284.00
1136.94,321.00
1138.33,399.00
1139.72,233.00
1141.10,368.00
1142.48,365.00
1143.87,294.00
1145.25,373.00
1146.63,209.00
1148.01,363.00
1149.39,510.00
1150.77,339.00
1152.15,348.00
1153.53,399.00
1154.91,497.00
1156.29,446.00
1157.66,373.00
1159.04,482.00
1160.41,331.00
1161.79,532.00
1163.16,373.00
1164.54,493.00
1165.91,482.00
1167.28,373.00
1168.65,514.00
1170.02,423.00
1171.39,459.00
1172.76,394.00
1174.13,635.00
1175.50,623.00
1176.86,454.00
1178.23,548.00
1179.60,787.00
1180.96,546.00
1182.33,614.00
1183.69,645.00
1185.05,639.00
1186.42,857.00
1187.78,639.00
1189.14,716.00
1190.50,758.00
1191.86,792.00
1193.22,967.00
1194.58,717.00
1195.94,1133.00
1197.29,982.00
1198.65,1060.00
1200.01,1107.00
1201.36,1391.00
1202.72,1354.00
1204.07,1299.00
1205.42,1298.00
1206.78,1527.00
1208.13,1663.00
1209.48,1673.00
1210.83,1966.00
1212.18,2038.00
1213.53,2370.00
1214.88,2491.00
1216.23,2485.00
1217.58,2762.00
1218.92,2826.00
1220.27,2917.00
1221.61,3280.00
1222.96,3373.00
1224.30,3037.00
1225.65,3287.00
1226.99,3354.00
1228.33,3279.00
1229.67,3017.00
1231.01,3056.00
1232.36,2816.00
1233.70,2701.00
1235.03,2407.00
1236.37,2213.00
1237.71,2064.00
1239.05,1964.00
1240.38,1549.00
1241.72,1556.00
1243.06,1511.00
1244.39,1212.00
1245.72,1145.00
1247.06,984.00
1248.39,1135.00
1249.72,891.00
1251.05,1006.00
1252.39,1039.00
1253.72,852.00
1255.05,791.00
1256.37,576.00
1257.70,780.00
1259.03,787.00
1260.36,948.00
1261.68,828.00
1263.01,952.00
1264.33,800.00
1265.66,636.00
1266.98,747.00
1268.31,855.00
1269.63,1062.00
1270.95,810.00
1272.27,867.00
1273.59,700.00
1274.91,969.00
1276.23,725.00
1277.55,691.00
1278.87,786.00
1280.19,814.00
1281.51,752.00
1282.82,813.00
1284.14,742.00
1285.45,703.00
1286.77,529.00
1288.08,701.00
1289.39,797.00
1290.71,1064.00
1292.02,860.00
1293.33,767.00
1294.64,742.00
1295.95,1047.00
1297.26,826.00
1298.57,1009.00
1299.88,870.00
1301.19,564.00
1302.49,671.00
1303.80,707.00
1305.11,803.00
1306.41,1014.00
1307.72,730.00
1309.02,837.00
1310.32,1085.00
1311.63,915.00
1312.93,1083.00
1314.23,985.00
1315.53,1284.00
1316.83,929.00
1318.13,910.00
1319.43,1094.00
1320.73,1147.00
1322.03,1188.00
1323.32,888.00
1324.62,1016.00
1325.92,1118.00
1327.21,1186.00
1328.51,1103.00
1329.80,1195.00
1331.10,1253.00
1332.39,1268.00
1333.68,1304.00
1334.97,1160.00
1336.27,1465.00
1337.56,1421.00
1338.85,1237.00
1340.14,1303.00
1341.42,1256.00
1342.71,1378.00
1344.00,1690.00
1345.29,1525.00
1346.57,1495.00
1347.86,1408.00
1349.15,1793.00
1350.43,1724.00
1351.71,1726.00
1353.00,1816.00
1354.28,1957.00
1355.56,1815.00
1356.85,2150.00
1358.13,2202.00
1359.41,2066.00
1360.69,1959.00
1361.97,2277.00
1363.25,1976.00
1364.52,2269.00
1365.80,2152.00
1367.08,2172.00
1368.35,2195.00
1369.63,2154.00
1370.91,2322.00
1372.18,2008.00
1373.45,2091.00
1374.73,2205.00
1376.00,2263.00
1377.27,1929.00
1378.54,2131.00
1379.82,2122.00
1381.09,2070.00
1382.36,2192.00
1383.63,2342.00
1384.89,2193.00
1386.16,2483.00
1387.43,2438.00
1388.70,2273.00
1389.96,2522.00
1391.23,2501.00
1392.50,2312.00
1393.76,2674.00
1395.02,2736.00
1396.29,2752.00
1397.55,2841.00
1398.81,3160.00
1400.08,3221.00
1401.34,3198.00
1402.60,3268.00
1403.86,3411.00
1405.12,3638.00
1406.38,3235.00
1407.63,4049.00
1408.89,3827.00
1410.15,4075.00
1411.41,4393.00
1412.66,4518.00
1413.92,4887.00
1415.17,4880.00
1416.43,5121.00
1417.68,5234.00
1418.93,5603.00
1420.19,5240.00
1421.44,5658.00
1422.69,5957.00
1423.94,6695.00
1425.19,6430.00
1426.44,6620.00
1427.69,6613.00
1428.94,6956.00
1430.19,6999.00
1431.43,6693.00
1432.68,6987.00
1433.93,6847.00
1435.17,6972.00
1436.42,6724.00
1437.66,6964.00
1438.91,6861.00
1440.15,6622.00
1441.39,6353.00
1442.64,6369.00
1443.88,6193.00
1445.12,6170.00
1446.36,5865.00
1447.60,5874.00
1448.84,5733.00
1450.08,5074.00
1451.32,5000.00
1452.56,4881.00
1453.79,4894.00
1455.03,4434.00
1456.27,4387.00
1457.50,4156.00
1458.74,3973.00
1459.97,3748.00
1461.21,3968.00
1462.44,3502.00
1463.67,3434.00
1464.91,3326.00
1466.14,3456.00
1467.37,3229.00
1468.60,2902.00
1469.83,2929.00
1471.06,2820.00
1472.29,2683.00
1473.52,2968.00
1474.75,2702.00
1475.97,2758.00
1477.20,2326.00
1478.43,2393.00
1479.65,2419.00
1480.88,2329.00
1482.10,2319.00
1483.33,2284.00
1484.55,2325.00
1485.77,2183.00
1487.00,2153.00
1488.22,2120.00
1489.44,2025.00
1490.66,1980.00
1491.88,1985.00
1493.10,1908.00
1494.32,1857.00
1495.54,1786.00
1496.76,2032.00
1497.97,1685.00
1499.19,1638.00
1500.41,1852.00
1501.62,1847.00
1502.84,1631.00
1504.05,1615.00
1505.27,1788.00
1506.48,1569.00
1507.70,1580.00
1508.91,1616.00
1510.12,1285.00
1511.33,1600.00
1512.54,1494.00
1513.75,1616.00
1514.96,1516.00
1516.17,1493.00
1517.38,1517.00
1518.59,1578.00
1519.80,1416.00
1521.01,1459.00
1522.21,1440.00
1523.42,1431.00
1524.63,1512.00
1525.83,1513.00
1527.04,1223.00
1528.24,1507.00
1529.44,1568.00
1530.65,1369.00
1531.85,1314.00
1533.05,1270.00
1534.25,1342.00
1535.45,1342.00
1536.65,1181.00
1537.85,1289.00
1539.05,1077.00
1540.25,1105.00
1541.45,1118.00
1542.65,1389.00
1543.85,1074.00
1545.04,981.00
1546.24,1118.00
1547.44,1293.00
1548.63,955.00
1549.83,1102.00
1551.02,974.00
1552.21,1062.00
1553.41,1230.00
1554.60,917.00
1555.79,1143.00
1556.98,1173.00
1558.17,876.00
1559.37,1023.00
1560.56,1103.00
1561.74,969.00
1562.93,1245.00
1564.12,1156.00
1565.31,795.00
1566.50,1143.00
1567.68,1204.00
1568.87,1140.00
1570.06,878.00
1571.24,1070.00
1572.43,977.00
1573.61,1022.00
1574.80,980.00
1575.98,1094.00
1577.16,836.00
1578.34,925.00
1579.53,928.00
1580.71,476.00
1581.89,837.00
1583.07,808.00
1584.25,931.00
1585.43,691.00
1586.61,835.00
1587.78,727.00
1588.96,556.00
1590.14,899.00
1591.32,871.00
1592.49,665.00
1593.67,622.00
1594.84,993.00
1596.02,706.00
1597.19,772.00
1598.37,727.00
1599.54,456.00
1600.71,749.00
1601.88,779.00
1603.06,762.00
1604.23,410.00
1605.40,635.00
1606.57,584.00
1607.74,787.00
1608.91,668.00
1610.07,561.00
1611.24,445.00
1612.41,561.00
1613.58,730.00
1614.74,596.00
1615.91,301.00
1617.08,476.00
1618.24,825.00
1619.41,374.00
1620.57,604.00
1621.73,784.00
1622.90,731.00
1624.06,310.00
1625.22,406.00
1626.38,512.00
1627.54,568.00
1628.70,693.00
1629.87,547.00
1631.02,465.00
1632.18,527.00
1633.34,558.00
1634.50,531.00
1635.66,412.00
1636.82,642.00
1637.97,592.00
1639.13,414.00
1640.28,619.00
1641.44,480.00
1642.59,721.00
1643.75,376.00
1644.90,528.00
1646.06,544.00
1647.21,715.00
1648.36,579.00
1649.51,625.00
1650.66,461.00
1651.81,577.00
1652.97,175.00
1654.11,573.00
1655.26,519.00
1656.41,544.00
1657.56,623.00
1658.71,341.00
1659.86,460.00
1661.00,519.00
1662.15,439.00
1663.30,613.00
1664.44,456.00
1665.59,512.00
1666.73,594.00
1667.88,461.00
1669.02,699.00
1670.16,448.00
1671.30,518.00
1672.45,831.00
1673.59,459.00
1674.73,874.00
1675.87,645.00
1677.01,696.00
1678.15,639.00
1679.29,718.00
1680.43,727.00
1681.57,710.00
1682.70,921.00
1683.84,616.00
1684.98,803.00
1686.12,752.00
1687.25,832.00
1688.39,1097.00
1689.52,1036.00
1690.66,1178.00
1691.79,1213.00
1692.92,1253.00
1694.06,1416.00
1695.19,1569.00
1696.32,1554.00
1697.45,1561.00
1698.58,1974.00
1699.72,2185.00
1700.85,2414.00
1701.98,2598.00
1703.10,2973.00
1704.23,3437.00
1705.36,3723.00
1706.49,3828.00
1707.62,4431.00
1708.74,4362.00
1709.87,4714.00
1711.00,4974.00
1712.12,5329.00
1713.25,5273.00
1714.37,5317.00
1715.50,5604.00
1716.62,5249.00
1717.74,5393.00
1718.87,5462.00
1719.99,4659.00
1721.11,4456.00
1722.23,4285.00
1723.35,3894.00
1724.47,3683.00
1725.59,3695.00
1726.71,3362.00
1727.83,2979.00
1728.95,2714.00
1730.07,2327.00
1731.19,1914.00
1732.30,2109.00
1733.42,1921.00
1734.54,1815.00
1735.65,1916.00
1736.77,1635.00
1737.88,1519.00
1739.00,1542.00
1740.11,1247.00
1741.23,1497.00
1742.34,1303.00
1743.45,1404.00
1744.56,1218.00
1745.68,1211.00
1746.79,1235.00
1747.90,1371.00
1749.01,1170.00
1750.12,1189.00
1751.23,1229.00
1752.34,970.00
1753.45,984.00
1754.55,1073.00
1755.66,1113.00
1756.77,1051.00
1757.88,1101.00
1758.98,843.00
1760.09,950.00
1761.19,958.00
1762.30,971.00
1763.40,921.00
1764.51,918.00
1765.61,664.00
1766.71,868.00
1767.82,888.00
1768.92,715.00
1770.02,842.00
1771.12,564.00
1772.22,408.00
1773.32,620.00
1774.42,434.00
1775.52,697.00
1776.62,485.00
1777.72,460.00
1778.82,596.00
1779.92,425.00
1781.01,676.00
1782.11,515.00
1783.21,473.00
1784.30,572.00
1785.40,475.00
1786.50,455.00
1787.59,371.00
1788.68,556.00
1789.78,389.00
1790.87,492.00
1791.96,573.00
1793.06,463.00
1794.15,578.00
1795.24,616.00
1796.33,533.00
1797.42,500.00
1798.51,508.00
1799.60,545.00
1800.69,413.00
1801.78,234.00
1802.87,513.00
1803.96,346.00
1805.05,512.00
1806.13,245.00
1807.22,442.00
1808.31,374.00
1809.39,358.00
1810.48,348.00
1811.56,397.00
1812.65,213.00
1813.73,382.00
1814.82,343.00
1815.90,330.00
1816.98,656.00
1818.07,551.00
1819.15,275.00
1820.23,420.00
1821.31,259.00
1822.39,436.00
1823.47,532.00
1824.55,228.00
1825.63,155.00
1826.71,194.00
1827.79,507.00
1828.87,306.00
1829.95,174.00
1831.02,243.00
1832.10,215.00
1833.18,206.00
1834.25,380.00
1835.33,486.00
1836.40,391.00
1837.48,221.00
1838.55,356.00
1839.63,322.00
1840.70,454.00
1841.77,253.00
1842.85,328.00
1843.92,265.00
1844.99,348.00
1846.06,275.00
1847.13,160.00
1848.20,275.00
1849.28,194.00
1850.34,318.00
1851.41,317.00
1852.48,260.00
1853.55,280.00
1854.62,296.00
1855.69,493.00
1856.76,300.00
1857.82,226.00
1858.89,319.00
1859.95,158.00
1861.02,109.00
1862.09,220.00
1863.15,349.00
1864.21,100.00
1865.28,339.00
1866.34,231.00
1867.41,192.00
1868.47,373.00
1869.53,198.00
1870.59,310.00
1871.65,223.00
1872.71,107.00
1873.78,138.00
1874.84,349.00
1875.90,287.00
1876.96,161.00
1878.01,290.00
1879.07,188.00
1880.13,181.00
1881.19,319.00
1882.25,85.00
1883.30,151.00
1884.36,150.00
1885.42,105.00
1886.47,151.00
1887.53,293.00
1888.58,189.00
1889.64,204.00
1890.69,369.00
1891.74,65.00
1892.80,286.00
1893.85,285.00
1894.90,284.00
1895.96,121.00
1897.01,215.00
1898.06,99.00
1899.11,71.00
1900.16,218.00
1901.21,152.00
1902.26,91.00
1903.31,99.00
1904.36,304.00
1905.41,109.00
1906.45,159.00
1907.50,172.00
1908.55,106.00
1909.60,95.00
1910.64,133.00
1911.69,126.00
1912.73,246.00
1913.78,309.00
1914.82,136.00
1915.87,205.00
1916.91,202.00
1917.96,56.00
1919.00,223.00
1920.04,309.00
1921.08,151.00
1922.13,171.00
1923.17,194.00
1924.21,255.00
1925.25,96.00
1926.29,157.00
1927.33,157.00
1928.37,119.00
1929.41,119.00
1930.45,73.00
1931.49,239.00
1932.53,110.00
1933.56,393.00
1934.60,124.00
1935.64,222.00
1936.67,286.00
1937.71,309.00
1938.75,114.00
1939.78,231.00
1940.82,167.00
1941.85,92.00
1942.89,209.00
1943.92,68.00
1944.95,132.00
1945.99,51.00
1947.02,235.00
1948.05,199.00
1949.08,186.00
1950.11,346.00
1951.15,47.00
1952.18,288.00
1953.21,195.00
1954.24,244.00
1955.27,65.00
1956.30,194.00
1957.32,228.00
1958.35,247.00
1959.38,166.00
1960.41,47.00
1961.44,70.00
1962.46,118.00
1963.49,190.00
1964.51,217.00
1965.54,11.00
1966.57,212.00
1967.59,-19.00
1968.62,301.00
1969.64,125.00
1970.66,72.00
1971.69,200.00
1972.71,24.00
1973.73,-72.00
1974.75,104.00
1975.78,96.00
1976.80,142.00
1977.82,264.00
1978.84,53.00
1979.86,25.00
1980.88,68.00
1981.90,101.00
1982.92,78.00
1983.94,126.00
1984.96,250.00
1985.98,120.00
1986.99,51.00
1988.01,205.00
1989.03,47.00
1990.04,319.00
1991.06,142.00
1992.08,20.00
1993.09,84.00
1994.11,73.00
1995.12,163.00
1996.14,3.00
1997.15,108.00
1998.16,202.00
1999.18,138.00
2000.19,173.00
2001.20,150.00
2002.21,131.00
2003.23,106.00
2004.24,3.00
2005.25,34.00
2006.26,97.00
2007.27,112.00
2008.28,190.00
2009.29,181.00
2010.30,194.00
2011.31,219.00
2012.32,160.00
2013.32,130.00
2014.33,173.00
2015.34,139.00
2016.35,22.00
2017.35,-9.00
2018.36,-58.00
2019.36,123.00
2020.37,256.00
2021.38,144.00
2022.38,132.00
2023.38,93.00
2024.39,224.00
2025.39,141.00
2026.40,140.00
2027.40,81.00
2028.40,92.00
2029.40,271.00
2030.41,-3.00
2031.41,27.00
2032.41,167.00
2033.41,148.00
2034.41,41.00
2035.41,152.00
2036.41,50.00
2037.41,166.00
2038.41,193.00
2039.41,129.00
2040.40,93.00
2041.40,51.00
2042.40,62.00
2043.40,175.00
2044.39,90.00
2045.39,32.00
2046.39,126.00
2047.38,204.00
2048.38,94.00
2049.37,81.00
2050.37,-11.00
2051.36,67.00
2052.36,105.00
2053.35,18.00
2054.34,202.00
2055.34,144.00
2056.33,57.00
2057.32,150.00
2058.31,65.00
2059.30,191.00
2060.30,146.00
2061.29,160.00
2062.28,8.00
2063.27,79.00
2064.26,96.00
2065.25,105.00
2066.23,55.00
2067.22,106.00
2068.21,156.00
2069.20,52.00
2070.19,-91.00
2071.17,130.00
2072.16,113.00
2073.15,71.00
2074.13,94.00
