ENLIGHTEN Version,1.7.2
Measurement ID,20190716-220829-465471-WP-00438
Serial Number,WP-00438
Label,alkanes
Integration Time,1000
Timestamp,2019-07-16 22:08:29.465471
Note,
Temperature,-99
CCD C0,807.1400146484375
CCD C1,0.11761099845170975
CCD C2,-1.6414700439781882e-05
CCD C3,2.3293600381890656e-09
CCD Offset,0
CCD Gain,8.0
Laser Wavelength,785.0
Laser Enable,True
Laser Power,100.0
Laser Temperature,-99
Pixel Count,1952

Wavenumber,Processed
349.43,0.00
351.23,0.00
353.04,0.00
354.84,1381.00
356.64,1350.00
358.44,1190.00
360.24,1255.00
362.04,1392.00
363.84,1388.00
365.64,1344.00
367.43,1338.00
369.23,1448.00
371.02,1429.00
372.81,1481.00
374.60,1486.00
376.39,1520.00
378.18,1491.00
379.97,1428.00
381.76,1513.00
383.55,1688.00
385.33,1478.00
387.11,1681.00
388.90,1465.00
390.68,1513.00
392.46,1610.00
394.24,1661.00
396.02,1736.00
397.80,1532.00
399.58,1538.00
401.35,1716.00
403.13,1684.00
404.90,1707.00
406.68,1745.00
408.45,1941.00
410.22,1700.00
411.99,1691.00
413.76,1719.00
415.53,1746.00
417.30,1896.00
419.06,1795.00
420.83,1685.00
422.59,1818.00
424.35,1558.00
426.12,1714.00
427.88,1713.00
429.64,1786.00
431.40,1711.00
433.16,1836.00
434.91,1890.00
436.67,1849.00
438.43,1723.00
440.18,1607.00
441.93,1637.00
443.69,1760.00
445.44,1603.00
447.19,1859.00
448.94,1616.00
450.69,1788.00
452.43,1614.00
454.18,1511.00
455.92,1600.00
457.67,1731.00
459.41,1789.00
461.16,1443.00
462.90,1700.00
464.64,1503.00
466.38,1666.00
468.12,1423.00
469.85,1433.00
471.59,1669.00
473.33,1462.00
475.06,1593.00
476.80,1463.00
478.53,1425.00
480.26,1446.00
481.99,1615.00
483.72,1551.00
485.45,1694.00
487.18,1571.00
488.91,1510.00
490.63,1619.00
492.36,1618.00
494.08,1609.00
495.80,1622.00
497.53,1509.00
499.25,1569.00
500.97,1596.00
502.69,1702.00
504.41,1607.00
506.12,1569.00
507.84,1257.00
509.56,1496.00
511.27,1322.00
512.98,1201.00
514.70,1245.00
516.41,1298.00
518.12,1185.00
519.83,1336.00
521.54,1022.00
523.25,1230.00
524.95,1184.00
526.66,1301.00
528.36,1150.00
530.07,1163.00
531.77,1161.00
533.47,1293.00
535.18,1249.00
536.88,1175.00
538.58,1288.00
540.27,1162.00
541.97,988.00
543.67,1123.00
545.36,992.00
547.06,851.00
548.75,1121.00
550.45,804.00
552.14,868.00
553.83,797.00
555.52,828.00
557.21,921.00
558.90,1028.00
560.58,870.00
562.27,927.00
563.96,843.00
565.64,834.00
567.32,739.00
569.01,756.00
570.69,838.00
572.37,830.00
574.05,723.00
575.73,630.00
577.41,656.00
579.08,818.00
580.76,864.00
582.44,799.00
584.11,705.00
585.78,698.00
587.46,789.00
589.13,664.00
590.80,630.00
592.47,712.00
594.14,700.00
595.81,619.00
597.47,798.00
599.14,509.00
600.80,607.00
602.47,641.00
604.13,549.00
605.79,722.00
607.46,622.00
609.12,744.00
610.78,654.00
612.44,613.00
614.09,637.00
615.75,644.00
617.41,651.00
619.06,553.00
620.72,408.00
622.37,579.00
624.02,597.00
625.67,660.00
627.33,465.00
628.97,535.00
630.62,610.00
632.27,549.00
633.92,451.00
635.57,427.00
637.21,597.00
638.86,465.00
640.50,479.00
642.14,515.00
643.78,312.00
645.42,429.00
647.06,354.00
648.70,494.00
650.34,321.00
651.98,249.00
653.62,480.00
655.25,404.00
656.89,511.00
658.52,394.00
660.15,360.00
661.79,507.00
663.42,361.00
665.05,472.00
666.68,345.00
668.31,321.00
669.93,556.00
671.56,474.00
673.19,575.00
674.81,408.00
676.43,250.00
678.06,511.00
679.68,316.00
681.30,447.00
682.92,544.00
684.54,635.00
686.16,545.00
687.78,562.00
689.40,522.00
691.01,529.00
692.63,438.00
694.24,593.00
695.86,676.00
697.47,724.00
699.08,617.00
700.69,661.00
702.30,604.00
703.91,751.00
705.52,885.00
707.13,879.00
708.74,858.00
710.34,744.00
711.95,716.00
713.55,813.00
715.15,1211.00
716.76,1055.00
718.36,1061.00
719.96,984.00
721.56,1210.00
723.16,1234.00
724.76,1415.00
726.35,1222.00
727.95,1322.00
729.55,1393.00
731.14,1316.00
732.73,1594.00
734.33,1433.00
735.92,1589.00
737.51,1650.00
739.10,1806.00
740.69,2064.00
742.28,1935.00
743.87,1882.00
745.46,2104.00
747.04,2097.00
748.63,2271.00
750.21,2374.00
751.80,2420.00
753.38,2550.00
754.96,2504.00
756.54,2530.00
758.12,2493.00
759.70,2710.00
761.28,2520.00
762.86,2665.00
764.44,2660.00
766.01,2754.00
767.59,2881.00
769.16,2744.00
770.74,2825.00
772.31,2901.00
773.88,2660.00
775.45,2738.00
777.02,2749.00
778.59,2830.00
780.16,2508.00
781.73,2575.00
783.30,2419.00
784.86,2593.00
786.43,2468.00
787.99,2544.00
789.56,2484.00
791.12,2565.00
792.68,2251.00
794.24,2547.00
795.80,2315.00
797.36,2425.00
798.92,2445.00
800.48,2533.00
802.04,2220.00
803.59,2501.00
805.15,2551.00
806.70,2487.00
808.26,2547.00
809.81,2638.00
811.36,2748.00
812.91,2933.00
814.46,2757.00
816.01,2735.00
817.56,3039.00
819.11,3042.00
820.66,3133.00
822.20,3192.00
823.75,3215.00
825.30,3559.00
826.84,3277.00
828.38,3099.00
829.93,3314.00
831.47,3325.00
833.01,3305.00
834.55,3456.00
836.09,3396.00
837.63,3710.00
839.16,3512.00
840.70,3716.00
842.24,3441.00
843.77,3829.00
845.31,3913.00
846.84,3726.00
848.37,3725.00
849.90,3706.00
851.44,3505.00
852.97,3644.00
854.50,3366.00
856.03,3383.00
857.55,3066.00
859.08,3458.00
860.61,3255.00
862.13,3223.00
863.66,3239.00
865.18,3070.00
866.70,3155.00
868.23,3246.00
869.75,3036.00
871.27,3363.00
872.79,3320.00
874.31,3238.00
875.83,3299.00
877.35,3424.00
878.86,3305.00
880.38,3233.00
881.89,3439.00
883.41,3582.00
884.92,3530.00
886.44,3541.00
887.95,3414.00
889.46,3668.00
890.97,3524.00
892.48,3789.00
893.99,3548.00
895.50,3810.00
897.01,3487.00
898.51,3502.00
900.02,3417.00
901.52,3427.00
903.03,3205.00
904.53,3052.00
906.04,2767.00
907.54,2760.00
909.04,2812.00
910.54,2654.00
912.04,2598.00
913.54,2372.00
915.04,2284.00
916.53,2383.00
918.03,2428.00
919.53,2434.00
921.02,2282.00
922.52,2217.00
924.01,2095.00
925.50,2154.00
927.00,2235.00
928.49,2216.00
929.98,2080.00
931.47,2196.00
932.96,2050.00
934.44,2185.00
935.93,1849.00
937.42,2149.00
938.90,2151.00
940.39,2075.00
941.87,2197.00
943.36,2029.00
944.84,2123.00
946.32,2084.00
947.80,2025.00
949.29,2270.00
950.77,1948.00
952.24,2209.00
953.72,2235.00
955.20,2165.00
956.68,2247.00
958.15,2408.00
959.63,2220.00
961.10,2290.00
962.58,2191.00
964.05,2270.00
965.52,2271.00
967.00,2263.00
968.47,2186.00
969.94,2356.00
971.41,2144.00
972.87,1983.00
974.34,2132.00
975.81,2183.00
977.28,1986.00
978.74,2175.00
980.21,1979.00
981.67,1988.00
983.13,1899.00
984.60,2075.00
986.06,1928.00
987.52,1940.00
988.98,1993.00
990.44,1918.00
991.90,1938.00
993.36,2129.00
994.82,2064.00
996.27,1847.00
997.73,1883.00
999.18,2039.00
1000.64,2026.00
1002.09,2118.00
1003.55,2012.00
1005.00,2169.00
1006.45,2229.00
1007.90,2388.00
1009.35,2210.00
1010.80,2557.00
1012.25,2310.00
1013.70,2427.00
1015.14,2388.00
1016.59,2446.00
1018.04,2531.00
1019.48,2395.00
1020.93,2698.00
1022.37,2921.00
1023.81,2852.00
1025.25,2868.00
1026.70,3032.00
1028.14,2936.00
1029.58,2941.00
1031.02,3294.00
1032.45,3227.00
1033.89,3411.00
1035.33,3312.00
1036.77,3406.00
1038.20,3133.00
1039.64,3341.00
1041.07,3368.00
1042.50,3370.00
1043.94,3485.00
1045.37,3587.00
1046.80,3306.00
1048.23,3413.00
1049.66,3507.00
1051.09,3793.00
1052.52,3344.00
1053.95,3717.00
1055.37,3576.00
1056.80,3718.00
1058.23,3357.00
1059.65,3653.00
1061.08,3575.00
1062.50,3869.00
1063.92,3705.00
1065.34,3710.00
1066.76,3612.00
1068.19,3786.00
1069.61,3577.00
1071.02,3395.00
1072.44,3446.00
1073.86,3603.00
1075.28,3403.00
1076.69,3403.00
1078.11,3466.00
1079.53,3362.00
1080.94,3104.00
1082.35,3215.00
1083.77,2955.00
1085.18,3110.00
1086.59,2731.00
1088.00,2795.00
1089.41,2980.00
1090.82,2815.00
1092.23,2774.00
1093.64,2681.00
1095.04,2355.00
1096.45,2508.00
1097.86,2323.00
1099.26,2368.00
1100.67,2053.00
1102.07,2173.00
1103.47,2033.00
1104.88,2094.00
1106.28,2071.00
1107.68,2044.00
1109.08,1730.00
1110.48,1762.00
1111.88,1588.00
1113.28,1841.00
1114.67,1997.00
1116.07,1676.00
1117.47,1780.00
1118.86,1772.00
1120.26,1773.00
1121.65,1869.00
1123.05,1809.00
1124.44,1806.00
1125.83,1855.00
1127.22,1972.00
1128.61,2093.00
1130.00,2265.00
1131.39,2185.00
1132.78,2530.00
1134.17,2758.00
1135.56,2637.00
1136.94,2758.00
1138.33,2643.00
1139.72,2677.00
1141.10,2947.00
1142.48,2829.00
1143.87,2715.00
1145.25,2936.00
1146.63,2918.00
1148.01,2733.00
1149.39,3263.00
1150.77,2994.00
1152.15,3040.00
1153.53,2981.00
1154.91,3022.00
1156.29,3182.00
1157.66,3183.00
1159.04,3400.00
1160.41,3484.00
1161.79,3536.00
1163.16,3084.00
1164.54,3332.00
1165.91,3226.00
1167.28,3092.00
1168.65,3143.00
1170.02,3217.00
1171.39,2956.00
1172.76,2660.00
1174.13,2891.00
1175.50,2686.00
1176.86,2465.00
1178.23,2751.00
1179.60,2529.00
1180.96,2286.00
1182.33,2334.00
1183.69,2441.00
1185.05,2246.00
1186.42,2343.00
1187.78,2005.00
1189.14,1940.00
1190.50,2072.00
1191.86,2182.00
1193.22,2141.00
1194.58,1934.00
1195.94,2238.00
1197.29,2057.00
1198.65,2032.00
1200.01,2110.00
1201.36,2295.00
1202.72,2061.00
1204.07,1996.00
1205.42,2087.00
1206.78,2023.00
1208.13,2052.00
1209.48,1963.00
1210.83,1934.00
1212.18,2010.00
1213.53,2073.00
1214.88,2109.00
1216.23,2194.00
1217.58,2242.00
1218.92,2167.00
1220.27,2126.00
1221.61,2096.00
1222.96,2281.00
1224.30,1964.00
1225.65,1885.00
1226.99,1937.00
1228.33,2174.00
1229.67,2047.00
1231.01,2394.00
1232.36,2202.00
1233.70,2234.00
1235.03,2213.00
1236.37,2230.00
1237.71,2080.00
1239.05,2371.00
1240.38,2282.00
1241.72,2378.00
1243.06,2174.00
1244.39,2411.00
1245.72,2511.00
1247.06,2321.00
1248.39,2369.00
1249.72,2445.00
1251.05,2550.00
1252.39,2847.00
1253.72,2366.00
1255.05,2606.00
1256.37,2334.00
1257.70,2739.00
1259.03,2731.00
1260.36,2939.00
1261.68,2759.00
1263.01,2753.00
1264.33,2793.00
1265.66,2884.00
1266.98,2862.00
1268.31,3101.00
1269.63,3197.00
1270.95,3150.00
1272.27,3125.00
1273.59,2797.00
1274.91,3249.00
1276.23,2889.00
1277.55,3091.00
1278.87,3036.00
1280.19,2908.00
1281.51,3200.00
1282.82,3127.00
1284.14,3294.00
1285.45,3258.00
1286.77,3308.00
1288.08,3420.00
1289.39,3504.00
1290.71,3630.00
1292.02,3848.00
1293.33,3879.00
1294.64,4120.00
1295.95,4196.00
1297.26,4201.00
1298.57,4377.00
1299.88,4377.00
1301.19,4622.00
1302.49,4689.00
1303.80,4351.00
1305.11,4991.00
1306.41,4560.00
1307.72,4876.00
1309.02,4530.00
1310.32,4482.00
1311.63,4379.00
1312.93,4647.00
1314.23,3931.00
1315.53,4226.00
1316.83,3913.00
1318.13,3784.00
1319.43,3507.00
1320.73,3530.00
1322.03,3383.00
1323.32,3131.00
1324.62,3134.00
1325.92,3111.00
1327.21,3175.00
1328.51,3129.00
1329.80,2810.00
1331.10,2858.00
1332.39,3289.00
1333.68,2862.00
1334.97,2839.00
1336.27,3224.00
1337.56,3038.00
1338.85,2747.00
1340.14,2879.00
1341.42,3316.00
1342.71,2965.00
1344.00,3216.00
1345.29,3108.00
1346.57,3224.00
1347.86,3209.00
1349.15,3362.00
1350.43,3107.00
1351.71,3064.00
1353.00,3091.00
1354.28,3289.00
1355.56,2838.00
1356.85,3185.00
1358.13,3135.00
1359.41,3152.00
1360.69,2817.00
1361.97,3003.00
1363.25,2741.00
1364.52,2743.00
1365.80,2756.00
1367.08,2952.00
1368.35,2495.00
1369.63,2608.00
1370.91,2790.00
1372.18,2462.00
1373.45,2587.00
1374.73,2433.00
1376.00,2432.00
1377.27,2249.00
1378.54,2130.00
1379.82,2231.00
1381.09,2121.00
1382.36,2051.00
1383.63,2125.00
1384.89,2001.00
1386.16,1982.00
1387.43,2023.00
1388.70,2025.00
1389.96,1740.00
1391.23,1653.00
1392.50,1669.00
1393.76,1857.00
1395.02,1628.00
1396.29,1812.00
1397.55,1555.00
1398.81,1839.00
1400.08,1578.00
1401.34,1555.00
1402.60,1702.00
1403.86,1572.00
1405.12,1885.00
1406.38,1749.00
1407.63,1710.00
1408.89,1746.00
1410.15,1764.00
1411.41,1718.00
1412.66,1971.00
1413.92,2186.00
1415.17,2046.00
1416.43,2222.00
1417.68,2123.00
1418.93,2628.00
1420.19,2562.00
1421.44,2710.00
1422.69,2942.00
1423.94,3389.00
1425.19,3676.00
1426.44,3875.00
1427.69,4201.00
1428.94,4579.00
1430.19,5005.00
1431.43,5449.00
1432.68,5683.00
1433.93,6485.00
1435.17,6723.00
1436.42,7616.00
1437.66,8133.00
1438.91,8455.00
1440.15,8790.00
1441.39,9644.00
1442.64,9982.00
1443.88,10751.00
1445.12,11038.00
1446.36,11268.00
1447.60,11728.00
1448.84,11815.00
1450.08,11780.00
1451.32,11646.00
1452.56,12111.00
1453.79,12029.00
1455.03,11719.00
1456.27,11822.00
1457.50,11456.00
1458.74,11504.00
1459.97,11094.00
1461.21,11052.00
1462.44,10394.00
1463.67,9865.00
1464.91,9810.00
1466.14,9678.00
1467.37,8842.00
1468.60,8629.00
1469.83,8212.00
1471.06,7589.00
1472.29,7120.00
1473.52,6887.00
1474.75,5970.00
1475.97,5718.00
1477.20,5035.00
1478.43,4874.00
1479.65,4621.00
1480.88,4244.00
1482.10,3902.00
1483.33,3668.00
1484.55,3584.00
1485.77,3106.00
1487.00,2996.00
1488.22,2953.00
1489.44,2823.00
1490.66,2504.00
1491.88,2813.00
1493.10,2461.00
1494.32,2327.00
1495.54,2273.00
1496.76,2337.00
1497.97,1843.00
1499.19,1910.00
1500.41,2001.00
1501.62,1847.00
1502.84,1890.00
1504.05,1611.00
1505.27,1817.00
1506.48,1771.00
1507.70,1874.00
1508.91,1697.00
1510.12,1654.00
1511.33,1589.00
1512.54,1680.00
1513.75,1390.00
1514.96,1537.00
1516.17,1568.00
1517.38,1664.00
1518.59,1251.00
1519.80,1394.00
1521.01,1234.00
1522.21,1395.00
1523.42,1137.00
1524.63,1324.00
1525.83,1494.00
1527.04,1235.00
1528.24,1307.00
1529.44,1422.00
1530.65,1417.00
1531.85,1348.00
1533.05,1219.00
1534.25,1270.00
1535.45,1269.00
1536.65,1281.00
1537.85,1014.00
1539.05,1065.00
1540.25,1043.00
1541.45,966.00
1542.65,1227.00
1543.85,981.00
1545.04,1081.00
1546.24,1053.00
1547.44,904.00
1548.63,738.00
1549.83,1138.00
1551.02,977.00
1552.21,938.00
1553.41,1206.00
1554.60,720.00
1555.79,1045.00
1556.98,911.00
1558.17,842.00
1559.37,1014.00
1560.56,1112.00
1561.74,943.00
1562.93,846.00
1564.12,1075.00
1565.31,873.00
1566.50,692.00
1567.68,804.00
1568.87,1126.00
1570.06,761.00
1571.24,931.00
1572.43,873.00
1573.61,776.00
1574.80,844.00
1575.98,963.00
1577.16,1083.00
1578.34,1062.00
1579.53,709.00
1580.71,603.00
1581.89,712.00
1583.07,602.00
1584.25,975.00
1585.43,732.00
1586.61,710.00
1587.78,652.00
1588.96,782.00
1590.14,948.00
1591.32,831.00
1592.49,625.00
1593.67,820.00
1594.84,741.00
1596.02,840.00
1597.19,755.00
1598.37,832.00
1599.54,512.00
1600.71,746.00
1601.88,694.00
1603.06,774.00
1604.23,679.00
1605.40,703.00
1606.57,625.00
1607.74,838.00
1608.91,770.00
1610.07,783.00
1611.24,648.00
1612.41,680.00
1613.58,793.00
1614.74,692.00
1615.91,461.00
1617.08,444.00
1618.24,968.00
1619.41,615.00
1620.57,652.00
1621.73,703.00
1622.90,659.00
1624.06,619.00
1625.22,710.00
1626.38,795.00
1627.54,651.00
1628.70,685.00
1629.87,680.00
1631.02,569.00
1632.18,745.00
1633.34,780.00
1634.50,586.00
1635.66,470.00
1636.82,869.00
1637.97,736.00
1639.13,566.00
1640.28,707.00
1641.44,799.00
1642.59,943.00
1643.75,509.00
1644.90,773.00
1646.06,628.00
1647.21,709.00
1648.36,779.00
1649.51,662.00
1650.66,610.00
1651.81,737.00
1652.97,532.00
1654.11,570.00
1655.26,604.00
1656.41,658.00
1657.56,803.00
1658.71,543.00
1659.86,550.00
1661.00,593.00
1662.15,655.00
1663.30,704.00
1664.44,592.00
1665.59,605.00
1666.73,640.00
1667.88,647.00
1669.02,546.00
1670.16,635.00
1671.30,678.00
1672.45,649.00
1673.59,424.00
1674.73,594.00
1675.87,521.00
1677.01,672.00
1678.15,659.00
1679.29,566.00
1680.43,516.00
1681.57,598.00
1682.70,580.00
1683.84,502.00
1684.98,458.00
1686.12,489.00
1687.25,378.00
1688.39,617.00
1689.52,494.00
1690.66,665.00
1691.79,519.00
1692.92,726.00
1694.06,649.00
1695.19,439.00
1696.32,423.00
1697.45,527.00
1698.58,507.00
1699.72,512.00
1700.85,524.00
1701.98,663.00
1703.10,669.00
1704.23,664.00
1705.36,529.00
1706.49,610.00
1707.62,754.00
1708.74,395.00
1709.87,347.00
1711.00,629.00
1712.12,420.00
1713.25,499.00
1714.37,544.00
1715.50,677.00
1716.62,397.00
1717.74,500.00
1718.87,460.00
1719.99,580.00
1721.11,387.00
1722.23,786.00
1723.35,617.00
1724.47,400.00
1725.59,650.00
1726.71,609.00
1727.83,547.00
1728.95,377.00
1730.07,149.00
1731.19,379.00
1732.30,429.00
1733.42,617.00
1734.54,488.00
1735.65,486.00
1736.77,446.00
1737.88,417.00
1739.00,488.00
1740.11,609.00
1741.23,579.00
1742.34,374.00
1743.45,425.00
1744.56,338.00
1745.68,392.00
1746.79,473.00
1747.90,529.00
1749.01,375.00
1750.12,431.00
1751.23,656.00
1752.34,434.00
1753.45,280.00
1754.55,339.00
1755.66,379.00
1756.77,354.00
1757.88,499.00
1758.98,373.00
1760.09,491.00
1761.19,443.00
1762.30,239.00
1763.40,568.00
1764.51,557.00
1765.61,368.00
1766.71,464.00
1767.82,314.00
1768.92,505.00
1770.02,614.00
1771.12,380.00
1772.22,142.00
1773.32,430.00
1774.42,267.00
1775.52,421.00
1776.62,240.00
1777.72,445.00
1778.82,609.00
1779.92,373.00
1781.01,361.00
1782.11,523.00
1783.21,377.00
1784.30,481.00
1785.40,297.00
1786.50,285.00
1787.59,270.00
1788.68,418.00
1789.78,356.00
1790.87,419.00
1791.96,424.00
1793.06,434.00
1794.15,428.00
1795.24,549.00
1796.33,448.00
1797.42,473.00
1798.51,298.00
1799.60,413.00
1800.69,308.00
1801.78,246.00
1802.87,355.00
1803.96,265.00
1805.05,322.00
1806.13,230.00
1807.22,386.00
1808.31,288.00
1809.39,407.00
1810.48,291.00
1811.56,190.00
1812.65,387.00
1813.73,360.00
1814.82,298.00
1815.90,131.00
1816.98,486.00
1818.07,401.00
1819.15,191.00
1820.23,614.00
1821.31,152.00
1822.39,267.00
1823.47,332.00
1824.55,264.00
1825.63,350.00
1826.71,318.00
1827.79,325.00
1828.87,221.00
1829.95,184.00
1831.02,260.00
1832.10,320.00
1833.18,179.00
1834.25,368.00
1835.33,267.00
1836.40,266.00
1837.48,262.00
1838.55,310.00
1839.63,325.00
1840.70,305.00
1841.77,305.00
1842.85,384.00
1843.92,99.00
1844.99,223.00
1846.06,322.00
1847.13,53.00
1848.20,196.00
1849.28,222.00
1850.34,343.00
1851.41,370.00
1852.48,244.00
1853.55,256.00
1854.62,363.00
1855.69,343.00
1856.76,313.00
1857.82,253.00
1858.89,307.00
1859.95,262.00
1861.02,190.00
1862.09,342.00
1863.15,496.00
1864.21,189.00
1865.28,261.00
1866.34,393.00
1867.41,354.00
1868.47,393.00
1869.53,258.00
1870.59,362.00
1871.65,194.00
1872.71,238.00
1873.78,273.00
1874.84,255.00
1875.90,123.00
1876.96,334.00
1878.01,285.00
1879.07,339.00
1880.13,261.00
1881.19,357.00
1882.25,176.00
1883.30,177.00
1884.36,262.00
1885.42,184.00
1886.47,146.00
1887.53,126.00
1888.58,182.00
1889.64,224.00
1890.69,246.00
1891.74,306.00
1892.80,200.00
1893.85,275.00
1894.90,215.00
1895.96,263.00
1897.01,263.00
1898.06,197.00
1899.11,66.00
1900.16,141.00
1901.21,331.00
1902.26,217.00
1903.31,128.00
1904.36,209.00
1905.41,297.00
1906.45,241.00
1907.50,209.00
1908.55,203.00
1909.60,150.00
1910.64,135.00
1911.69,262.00
1912.73,158.00
1913.78,320.00
1914.82,307.00
1915.87,214.00
1916.91,241.00
1917.96,183.00
1919.00,144.00
1920.04,291.00
1921.08,302.00
1922.13,130.00
1923.17,257.00
1924.21,243.00
1925.25,247.00
1926.29,227.00
1927.33,363.00
1928.37,-39.00
1929.41,141.00
1930.45,111.00
1931.49,216.00
1932.53,127.00
1933.56,405.00
1934.60,105.00
1935.64,223.00
1936.67,233.00
1937.71,315.00
1938.75,44.00
1939.78,231.00
1940.82,124.00
1941.85,86.00
1942.89,280.00
1943.92,184.00
1944.95,48.00
1945.99,80.00
1947.02,262.00
1948.05,63.00
1949.08,44.00
1950.11,172.00
1951.15,-3.00
1952.18,349.00
1953.21,220.00
1954.24,205.00
1955.27,178.00
1956.30,244.00
1957.32,222.00
1958.35,160.00
1959.38,215.00
1960.41,168.00
1961.44,98.00
1962.46,118.00
1963.49,159.00
1964.51,194.00
1965.54,102.00
1966.57,168.00
1967.59,-2.00
1968.62,271.00
1969.64,156.00
1970.66,185.00
1971.69,145.00
1972.71,187.00
1973.73,-31.00
1974.75,186.00
1975.78,130.00
1976.80,141.00
1977.82,381.00
1978.84,101.00
1979.86,63.00
1980.88,247.00
1981.90,90.00
1982.92,171.00
1983.94,131.00
1984.96,246.00
1985.98,101.00
1986.99,86.00
1988.01,223.00
1989.03,96.00
1990.04,238.00
1991.06,144.00
1992.08,136.00
1993.09,208.00
1994.11,105.00
1995.12,120.00
1996.14,220.00
1997.15,117.00
1998.16,92.00
1999.18,129.00
2000.19,222.00
2001.20,178.00
2002.21,221.00
2003.23,127.00
2004.24,-13.00
2005.25,123.00
2006.26,72.00
2007.27,236.00
2008.28,149.00
2009.29,158.00
2010.30,265.00
2011.31,291.00
2012.32,129.00
2013.32,102.00
2014.33,163.00
2015.34,154.00
2016.35,100.00
2017.35,102.00
2018.36,-38.00
2019.36,158.00
2020.37,191.00
2021.38,183.00
2022.38,112.00
2023.38,178.00
2024.39,232.00
2025.39,230.00
2026.40,213.00
2027.40,88.00
2028.40,239.00
2029.40,326.00
2030.41,186.00
2031.41,80.00
2032.41,195.00
2033.41,159.00
2034.41,105.00
2035.41,212.00
2036.41,134.00
2037.41,212.00
2038.41,95.00
2039.41,138.00
2040.40,108.00
2041.40,51.00
2042.40,195.00
2043.40,254.00
2044.39,157.00
2045.39,26.00
2046.39,217.00
2047.38,200.00
2048.38,137.00
2049.37,209.00
2050.37,83.00
2051.36,127.00
2052.36,192.00
2053.35,152.00
